# f/Hz U/V
6.000 0.013 46.000 0.083
8.000 0.015 48.000 0.086
10.000 0.015 50.000 0.088
12.000 0.020 52.000 0.093
14.000 0.021 54.000 0.096
16.000 0.025 56.000 0.100
18.000 0.027 58.000 0.106
20.000 0.030 60.000 0.106
22.000 0.033 62.000 0.113
24.000 0.038 64.000 0.116
26.000 0.040 66.000 0.120
28.000 0.047 68.000 0.126
30.000 0.050 70.000 0.130
32.000 0.058 72.000 0.130
34.000 0.060 74.000 0.140
36.000 0.066 76.000 0.142
38.000 0.068 78.000 0.146
40.000 0.070 80.000 0.160
42.000 0.080 82.000 0.166
44.000 0.080 84.000 0.166
nan nan 86.000 0.166
nan nan 88.000 0.166
